
data_pnd

loop_
_pd_meas_angle_2theta
_pd_meas_intensity_up
_pd_meas_intensity_up_sigma
_pd_meas_intensity_down
_pd_meas_intensity_down_sigma
4.0 465.8 128.97 301.88 129.3
4.2 323.78 118.22 206.06 120.0
4.4 307.14 115.9 230.47 116.53
4.6 172.13 115.84 236.52 113.74
4.8 164.31 110.75 291.6 110.73
5.0 166.47 106.51 426.73 109.08
5.2 217.67 104.66 183.24 107.79
5.4 84.01 99.91 179.87 99.98
5.6 220.87 98.72 297.76 99.83
5.8 223.46 98.77 149.78 98.18
6.0 408.25 96.89 356.86 96.41
6.2 381.21 94.03 287.26 96.94
6.4 239.85 94.06 101.64 95.3
6.6 58.16 90.93 194.35 89.9
6.8 127.79 88.33 273.48 89.35
7.0 148.69 87.5 165.7 89.52
7.2 34.61 87.11 223.81 88.08
7.4 139.23 85.02 431.55 87.94
7.6 115.56 89.95 251.61 87.32
7.8 185.63 85.06 244.73 82.12
8.0 183.16 69.52 203.67 67.54
8.2 202.9 68.57 255.22 67.34
8.4 311.71 68.34 340.96 67.33
8.6 346.0 66.7 411.33 69.25
8.8 607.26 71.38 655.52 70.86
9.0 1423.1 79.65 1648.33 79.59
9.2 2637.88 85.69 2515.01 84.19
9.4 2593.55 85.42 2685.28 86.58
9.6 1639.65 78.66 1821.82 79.53
9.8 661.87 67.5 751.09 68.83
10.0 386.03 64.21 334.96 65.28
10.2 255.63 63.67 278.9 64.6
10.4 198.32 60.8 201.41 62.23
10.6 238.27 61.98 190.13 61.43
10.8 280.29 60.6 271.07 59.76
11.0 170.54 60.91 291.55 61.86
11.2 157.47 60.69 382.72 61.42
11.4 265.74 61.48 314.71 61.16
11.6 235.43 58.37 232.22 59.98
11.8 254.36 54.12 151.82 54.65
12.0 229.41 44.41 197.71 45.89
12.2 179.41 45.96 221.01 45.19
12.4 223.14 45.03 220.61 45.51
12.6 146.09 44.35 249.94 44.9
12.8 185.32 45.77 142.71 44.73
13.0 121.45 44.2 112.5 43.76
13.2 227.91 44.04 211.71 43.87
13.4 189.59 44.13 167.53 43.41
13.6 205.87 44.26 220.05 44.31
13.8 132.79 44.57 197.19 43.82
14.0 239.49 43.94 95.79 43.46
14.2 86.81 43.48 172.28 43.3
14.4 248.3 42.95 164.91 43.3
14.6 207.32 42.97 174.02 42.9
14.8 258.53 43.22 291.92 43.7
15.0 329.99 44.05 404.54 44.1
15.2 696.47 47.18 679.65 46.65
15.4 1006.24 49.93 989.2 50.08
15.6 1107.28 50.12 1106.83 49.99
15.8 981.69 48.0 860.17 47.13
16.0 498.98 41.5 532.91 41.57
16.2 349.14 39.47 280.99 39.63
16.4 245.09 38.62 300.46 38.59
16.6 303.71 38.25 281.64 38.48
16.8 293.71 37.7 182.19 37.7
17.0 208.45 36.93 271.36 36.81
17.2 236.32 37.37 237.09 37.21
17.4 273.02 37.67 288.95 37.44
17.6 391.29 38.37 468.62 38.24
17.8 737.89 40.6 797.09 40.69
18.0 1476.09 45.2 1535.38 44.65
18.2 2263.8 48.37 2294.09 48.15
18.4 2466.51 49.22 2524.38 49.18
18.6 1930.22 46.21 1936.65 46.2
18.8 1315.88 43.03 1319.55 43.1
19.0 829.22 41.17 948.38 40.83
19.2 712.87 40.82 641.87 41.31
19.4 544.69 40.9 460.21 41.16
19.6 193.7 41.43 251.98 41.05
19.8 100.31 42.36 61.19 41.74
20.0 114.94 41.2 76.74 40.93
20.2 165.08 38.07 160.89 37.86
20.4 163.82 36.66 231.86 36.71
20.6 248.01 35.37 256.14 35.19
20.8 298.18 34.22 240.52 33.51
21.0 249.15 33.48 237.69 33.59
21.2 305.65 33.38 242.82 33.22
21.4 376.9 33.23 322.5 33.44
21.6 554.29 34.89 507.36 34.49
21.8 939.46 37.4 1031.08 37.62
22.0 1557.48 41.61 1602.08 41.98
22.2 1822.72 46.81 2027.99 47.44
22.4 1705.98 50.45 1698.2 50.66
22.6 1189.44 50.89 1118.02 51.13
22.8 633.69 48.85 704.47 48.8
23.0 324.74 45.89 450.15 46.09
23.2 183.73 44.3 340.75 43.92
23.4 247.37 43.16 257.73 43.32
23.6 218.4 42.87 259.17 42.54
23.8 298.85 40.21 250.36 40.04
24.0 425.06 37.77 517.72 37.8
24.2 533.65 35.2 548.97 35.08
24.4 513.14 30.4 575.11 30.54
24.6 455.12 29.12 456.17 29.09
24.8 398.09 28.64 340.46 28.84
25.0 287.95 28.53 294.64 28.75
25.2 218.55 28.28 252.34 28.32
25.4 219.11 28.6 213.36 28.54
25.6 196.34 28.94 194.78 28.61
25.8 182.35 28.71 121.43 28.65
26.0 189.43 28.33 237.15 28.56
26.2 167.4 28.56 169.83 28.51
26.4 206.02 28.31 212.26 28.1
26.6 169.54 27.8 198.04 27.61
26.8 279.61 27.78 313.06 27.78
27.0 390.35 28.23 477.9 27.96
27.2 539.74 28.0 540.68 28.35
27.4 586.2 28.86 627.8 28.81
27.6 532.06 28.93 551.12 28.64
27.8 450.78 28.47 438.94 28.26
28.0 399.47 27.64 332.27 27.89
28.2 356.23 27.95 340.46 27.91
28.4 427.78 27.86 451.34 28.14
28.6 699.51 28.77 676.48 28.58
28.8 1036.65 29.67 1116.43 29.51
29.0 1261.0 30.53 1326.94 30.52
29.2 1266.19 30.7 1278.4 30.79
29.4 1084.81 29.88 1143.17 30.08
29.6 873.77 29.06 867.65 28.85
29.8 637.9 27.18 607.04 27.05
30.0 409.62 26.86 470.03 27.07
30.2 347.81 26.49 335.12 26.61
30.4 285.22 26.39 293.92 26.2
30.6 242.01 26.3 328.56 26.55
30.8 456.75 27.05 402.12 26.9
31.0 731.44 28.07 728.44 28.07
31.2 1303.3 30.5 1302.25 30.59
31.4 2025.17 33.94 2072.52 33.95
31.6 2703.02 36.41 2722.87 36.56
31.8 3016.87 37.62 3064.08 37.67
32.0 2772.45 37.36 2845.01 37.3
32.2 2214.58 35.5 2232.01 35.45
32.4 1539.15 32.4 1498.69 32.59
32.6 956.4 30.78 906.67 30.93
32.8 589.27 29.68 601.91 29.68
33.0 454.94 28.98 482.57 29.01
33.2 471.79 27.72 440.17 28.19
33.4 427.37 26.82 408.16 27.06
33.6 365.64 26.47 353.26 26.3
33.8 319.64 26.24 331.26 26.43
34.0 255.38 25.98 320.36 25.72
34.2 222.33 25.22 256.53 25.23
34.4 281.3 24.91 193.04 24.8
34.6 209.57 24.64 197.3 24.58
34.8 205.75 24.34 253.96 24.33
35.0 213.04 24.37 251.08 24.39
35.2 281.56 24.92 254.42 24.75
35.4 283.15 25.0 266.52 24.99
35.6 311.28 24.99 308.37 25.22
35.8 365.68 25.17 313.57 24.96
36.0 299.34 25.37 386.63 25.04
36.2 352.59 24.86 297.12 24.77
36.4 405.15 25.66 379.15 25.52
36.6 408.04 26.11 388.8 25.99
36.8 482.85 26.54 466.7 26.49
37.0 523.17 26.58 573.0 26.85
37.2 556.66 26.84 497.09 27.08
37.4 452.16 26.42 495.05 26.52
37.6 460.85 26.1 481.13 26.04
37.8 366.78 26.23 335.95 26.21
38.0 317.79 25.72 275.14 25.76
38.2 292.59 24.28 236.05 24.23
38.4 242.76 24.05 255.13 24.14
38.6 326.62 24.6 304.2 24.49
38.8 426.07 24.3 415.09 24.26
39.0 477.83 25.09 504.8 25.0
39.2 595.07 25.42 523.94 25.2
39.4 527.0 25.43 517.35 25.57
39.6 511.93 25.5 488.38 25.67
39.8 419.83 25.41 453.16 25.53
40.0 396.58 24.78 358.5 24.95
40.2 315.96 24.48 344.91 24.45
40.4 246.64 24.32 291.77 24.2
40.6 237.8 23.81 273.24 23.89
40.8 228.73 23.63 236.95 23.5
41.0 253.87 23.17 211.31 23.32
41.2 238.63 23.13 168.28 23.26
41.4 192.84 22.71 203.35 22.87
41.6 206.37 23.2 190.52 23.12
41.8 241.81 23.29 259.87 23.16
42.0 310.88 23.14 239.64 23.4
42.2 334.3 23.46 360.8 23.24
42.4 337.69 23.61 374.1 23.55
42.6 372.87 23.64 391.36 23.61
42.8 443.41 23.82 457.42 23.93
43.0 535.11 24.53 499.05 24.49
43.2 629.13 24.5 645.74 24.51
43.4 706.95 24.21 707.56 24.25
43.6 749.78 24.42 764.23 24.27
43.8 740.38 24.47 755.31 24.74
44.0 719.85 23.92 769.21 24.05
44.2 663.9 24.37 687.61 24.25
44.4 597.45 23.87 574.59 23.82
44.6 491.42 23.46 550.54 23.54
44.8 507.06 23.33 552.11 23.64
45.0 469.58 23.52 501.98 23.5
45.2 544.56 23.31 530.48 23.35
45.4 572.9 23.71 585.28 23.79
45.6 671.72 24.14 599.56 24.05
45.8 570.99 24.26 635.6 24.15
46.0 629.18 24.1 667.18 24.08
46.2 550.45 24.13 558.57 23.9
46.4 508.2 23.57 465.97 23.69
46.6 410.03 23.44 409.24 23.51
46.8 305.75 23.14 310.49 23.43
47.0 253.97 23.2 264.14 23.25
47.2 230.6 22.96 189.66 22.92
47.4 171.98 22.85 197.31 22.88
47.6 178.34 23.01 204.33 23.01
47.8 182.88 22.52 204.68 22.57
48.0 232.51 23.0 244.12 22.93
48.2 223.03 23.11 216.63 23.11
48.4 252.0 23.18 279.79 23.22
48.6 322.82 23.43 329.0 23.36
48.8 371.11 23.51 353.11 23.59
49.0 454.87 22.87 474.69 22.95
49.2 547.85 23.08 535.47 23.17
49.4 542.41 23.51 524.52 23.81
49.6 601.02 23.68 593.3 23.53
49.8 563.17 23.71 607.94 23.89
50.0 616.16 23.56 602.81 23.85
50.2 590.61 24.01 592.79 23.95
50.4 606.3 23.85 566.65 23.74
50.6 596.72 24.53 577.9 24.38
50.8 597.0 24.65 603.64 24.67
51.0 650.98 24.74 604.03 24.78
51.2 699.22 24.94 707.18 24.9
51.4 681.01 25.0 733.38 25.02
51.6 733.45 24.92 751.33 24.91
51.8 671.11 24.83 707.95 25.03
52.0 645.71 25.19 626.69 25.25
52.2 534.23 24.8 565.11 25.0
52.4 491.69 24.81 491.01 24.88
52.6 423.39 24.66 447.7 24.7
52.8 355.1 24.57 325.18 24.49
53.0 338.34 23.98 332.01 23.91
53.2 297.81 24.5 308.95 24.52
53.4 260.15 24.38 292.71 24.47
53.6 235.44 24.54 219.19 24.56
53.8 229.74 24.27 241.28 24.46
54.0 304.75 24.48 298.07 24.68
54.2 335.63 24.64 341.16 24.36
54.4 325.95 24.59 385.95 24.58
54.6 381.82 25.07 416.19 24.95
54.8 485.78 24.99 449.41 25.11
55.0 509.35 25.01 487.73 24.83
55.2 564.52 24.68 566.09 24.97
55.4 623.89 23.41 586.49 23.46
55.6 673.37 23.15 701.9 23.26
55.8 775.57 24.01 817.24 23.95
56.0 862.45 24.44 871.07 24.28
56.2 1011.14 24.55 987.26 24.54
56.4 1148.71 24.84 1092.56 24.91
56.6 1158.75 25.06 1164.54 25.19
56.8 1205.6 24.99 1218.25 24.97
57.0 1240.84 25.28 1198.98 25.2
57.2 1226.76 25.18 1234.05 25.45
57.4 1108.71 24.91 1137.03 25.0
57.6 1004.48 24.52 994.74 24.38
57.8 891.4 24.17 902.16 24.13
58.0 743.65 23.59 739.09 23.59
58.2 599.86 23.34 600.04 23.26
58.4 479.42 23.25 591.53 23.22
58.6 451.96 23.04 464.94 23.07
58.8 367.48 22.82 404.87 22.76
59.0 444.64 22.83 400.76 22.8
59.2 384.8 22.84 450.85 22.9
59.4 420.5 22.54 428.59 22.85
59.6 491.4 23.25 496.9 23.31
59.8 551.35 23.28 527.44 23.42
60.0 598.91 23.38 527.64 23.44
60.2 552.78 23.47 570.66 23.37
60.4 553.53 23.33 567.92 23.52
60.6 493.39 23.27 513.88 23.14
60.8 498.96 23.16 556.75 23.19
61.0 442.86 23.14 512.97 23.33
61.2 453.57 23.07 406.07 23.24
61.4 375.95 23.17 418.31 23.12
61.6 377.59 22.82 321.2 23.11
61.8 295.5 22.9 336.81 22.94
62.0 231.85 22.35 282.16 22.35
62.2 192.83 22.78 233.22 22.68
62.4 208.53 22.84 216.56 22.74
62.6 138.22 22.49 175.48 22.52
62.8 156.76 22.45 159.85 22.63
63.0 151.29 21.95 205.33 21.66
63.2 140.53 21.52 167.69 21.77
63.4 176.62 21.56 166.39 21.66
63.6 189.92 21.96 206.42 21.73
63.8 188.76 21.76 184.2 21.66
64.0 267.52 21.68 226.1 21.65
64.2 193.32 21.69 262.19 21.77
64.4 259.76 21.87 258.57 21.75
64.6 214.75 21.21 254.52 21.11
64.8 278.07 21.86 257.72 21.85
65.0 295.53 21.85 261.97 21.87
65.2 302.03 21.92 300.01 21.84
65.4 357.19 21.8 354.39 21.97
65.6 351.8 22.02 365.58 22.07
65.8 395.31 21.8 404.25 21.89
66.0 437.76 21.96 392.98 22.0
66.2 467.93 22.32 456.46 22.38
66.4 468.46 22.35 470.06 22.58
66.6 470.71 22.34 495.82 22.28
66.8 508.54 22.48 524.38 22.31
67.0 493.45 22.32 478.45 22.31
67.2 523.58 22.05 508.43 21.92
67.4 478.96 22.29 498.29 22.5
67.6 437.2 22.25 399.12 22.41
67.8 410.75 22.23 417.56 22.17
68.0 402.25 22.28 374.52 22.16
68.2 383.88 22.14 351.8 22.12
68.4 318.91 22.28 317.03 22.33
68.6 347.58 22.49 333.94 22.38
68.8 275.02 22.49 332.31 22.56
69.0 341.69 22.5 339.19 22.54
69.2 328.83 22.37 296.38 22.42
69.4 376.03 22.38 382.65 22.52
69.6 342.81 22.48 318.24 22.7
69.8 371.89 22.84 381.11 22.62
70.0 306.79 23.22 432.65 23.03
70.2 388.76 23.17 384.34 23.3
70.4 402.77 23.33 415.44 23.37
70.6 468.63 23.47 464.21 23.6
70.8 467.41 23.54 417.67 23.54
71.0 441.58 23.68 455.51 23.48
71.2 420.15 24.09 419.65 24.12
71.4 469.81 24.13 445.42 24.22
71.6 406.31 24.31 431.33 24.13
71.8 411.69 24.35 413.67 24.03
72.0 397.86 24.27 393.73 24.07
72.2 388.89 24.28 415.24 23.93
72.4 410.09 24.43 320.33 24.31
72.6 347.83 24.56 331.16 24.65
72.8 358.38 24.56 311.39 24.51
73.0 340.0 24.66 342.47 24.83
73.2 315.62 24.73 407.07 24.78
73.4 359.86 24.74 378.6 24.82
73.6 396.03 24.23 370.53 24.19
73.8 425.97 24.62 421.12 24.88
74.0 449.83 24.92 442.68 24.82
74.2 478.79 24.89 427.18 24.95
74.4 486.65 24.92 475.43 24.99
74.6 552.6 25.29 496.92 25.16
74.8 572.3 25.29 587.09 25.24
75.0 615.24 25.7 632.31 25.52
75.2 676.6 26.05 652.23 26.15
75.4 692.59 26.16 691.45 26.35
75.6 659.96 26.28 674.67 26.18
75.8 731.7 26.3 685.44 26.32
76.0 705.01 26.21 658.28 26.31
76.2 655.79 26.11 669.81 26.37
76.4 667.63 26.79 657.36 27.22
76.6 669.15 26.93 624.14 26.9
76.8 637.38 26.99 672.21 26.92
77.0 567.46 26.88 587.13 26.78
77.2 547.94 26.7 585.11 26.76
77.4 498.04 26.49 584.07 26.45
77.6 443.92 26.94 512.61 26.61
77.8 471.2 27.05 439.22 27.23
78.0 444.64 27.09 418.65 27.08
78.2 426.69 27.01 457.18 26.81
78.4 484.98 27.12 475.99 27.04
78.6 436.84 27.08 439.56 27.08
78.8 425.16 27.14 401.99 27.08
79.0 440.43 27.98 412.37 28.09
79.2 428.72 28.12 433.36 28.25
79.4 432.35 27.89 458.37 28.25
79.6 455.61 28.14 491.4 28.13
79.8 498.22 27.8 440.6 27.98
80.0 408.89 27.81 393.54 28.01