
data_pnd
loop_
_pd_meas_2theta
_pd_meas_intensity
_pd_meas_intensity_sigma
13.6 932.9 27.8822
13.7 952.1 28.1677
13.8 929.0 27.8239
13.9 949.5 28.1292
14.0 905.0 27.4621
14.1 960.9 28.2975
14.2 995.0 28.7953
14.3 914.3 27.6028
14.4 915.1 27.6149
14.5 939.1 27.9747
14.6 958.8 28.2666
14.7 947.7 28.1025
14.8 927.2 27.7969
14.9 988.1 28.6952
15.0 989.1 28.7098
15.1 1000.3 28.8718
15.2 1003.0 28.9108
15.3 956.7 28.2356
15.4 967.3 28.3916
15.5 976.9 28.5321
15.6 965.6 28.3666
15.7 932.2 27.8717
15.8 984.1 28.6371
15.9 950.8 28.1484
16.0 950.1 28.1381
16.1 987.9 28.6923
16.2 1000.6 28.8762
16.3 945.3 28.0669
16.4 970.8 28.4429
16.5 907.9 27.5061
16.6 979.3 28.5672
16.7 968.9 28.4151
16.8 987.2 28.6822
16.9 949.1 28.1232
17.0 997.4 28.83
17.1 971.1 28.4473
17.2 914.4 27.6043
17.3 921.6 27.7128
17.4 929.5 27.8313
17.5 941.3 28.0074
17.6 989.6 28.717
17.7 931.0 27.8538
17.8 937.9 27.9568
17.9 935.4 27.9195
18.0 940.6 27.997
18.1 988.4 28.6996
18.2 957.9 28.2533
18.3 957.4 28.2459
18.4 994.4 28.7866
18.5 959.7 28.2799
18.6 973.1 28.4766
18.7 942.4 28.0238
18.8 920.7 27.6993
18.9 948.4 28.1129
19.0 936.2 27.9315
19.1 902.7 27.4272
19.2 1007.6 28.977
19.3 963.1 28.3299
19.4 942.6 28.0268
19.5 986.1 28.6662
19.6 964.0 28.3431
19.7 951.0 28.1514
19.8 946.0 28.0773
19.9 951.8 28.1632
20.0 966.7 28.3828
20.1 932.1 27.8702
20.2 931.3 27.8583
20.3 965.8 28.3696
20.4 966.2 28.3755
20.5 924.6 27.7579
20.6 914.4 27.6043
20.7 962.6 28.3225
20.8 939.6 27.9821
20.9 951.7 28.1617
21.0 945.6 28.0713
21.1 909.1 27.5242
21.2 982.8 28.6182
21.3 943.8 28.0446
21.4 977.1 28.5351
21.5 985.9 28.6633
21.6 958.3 28.2592
21.7 954.1 28.1972
21.8 952.5 28.1736
21.9 967.1 28.3887
22.0 939.1 27.9747
22.1 984.8 28.6473
22.2 1002.7 28.9065
22.3 895.0 27.3099
22.4 974.8 28.5015
22.5 921.6 27.7128
22.6 916.1 27.63
22.7 988.6 28.7025
22.8 927.9 27.8074
22.9 969.4 28.4224
23.0 965.5 28.3652
23.1 945.1 28.0639
23.2 951.0 28.1514
23.3 947.1 28.0936
23.4 947.4 28.098
23.5 924.6 27.7579
23.6 991.0 28.7373
23.7 941.8 28.0149
23.8 977.0 28.5336
23.9 955.8 28.2223
24.0 972.6 28.4693
24.1 977.5 28.5409
24.2 1053.8 29.6339
24.3 919.4 27.6797
24.4 1013.3 29.0588
24.5 965.8 28.3696
24.6 972.8 28.4722
24.7 962.0 28.3137
24.8 932.6 27.8777
24.9 988.8 28.7054
25.0 964.8 28.3549
25.1 1011.5 29.033
25.2 956.6 28.2341
25.3 975.6 28.5132
25.4 950.2 28.1395
25.5 967.7 28.3975
25.6 987.3 28.6836
25.7 1011.7 29.0359
25.8 970.2 28.4341
25.9 1012.2 29.0431
26.0 1030.9 29.3101
26.1 1008.9 28.9957
26.2 988.8 28.7054
26.3 968.7 28.4121
26.4 977.4 28.5394
26.5 963.6 28.3373
26.6 990.1 28.7243
26.7 1019.9 29.1533
26.8 1000.0 28.8675
26.9 991.0 28.7373
27.0 997.5 28.8314
27.1 938.4 27.9643
27.2 1009.4 29.0029
27.3 948.2 28.1099
27.4 991.9 28.7504
27.5 1045.2 29.5127
27.6 985.6 28.6589
27.7 945.8 28.0743
27.8 1004.7 28.9353
27.9 982.3 28.6109
28.0 949.6 28.1306
28.1 1023.0 29.1976
28.2 1072.0 29.8887
28.3 1217.9 31.8578
28.4 1952.5 40.3371
28.5 2801.1001 48.3141
28.6 2139.0 42.2197
28.7 1505.8 35.4236
28.8 1095.4 30.2131
28.9 1054.5 29.6437
29.0 1015.4 29.0889
29.1 948.7 28.1173
29.2 996.5 28.8169
29.3 1052.8 29.6198
29.4 964.7 28.3534
29.5 975.0 28.5044
29.6 1034.8 29.3655
29.7 1022.6 29.1919
29.8 1030.7 29.3073
29.9 1014.5 29.076
30.0 1002.3 28.9007
30.1 958.2 28.2577
30.2 1056.4 29.6704
30.3 1010.3 29.0158
30.4 1030.0 29.2973
30.5 1046.6 29.5325
30.6 993.6 28.775
30.7 984.6 28.6444
30.8 957.7 28.2504
30.9 1029.8 29.2945
31.0 996.2 28.8126
31.1 990.6 28.7315
31.2 980.5 28.5847
31.3 978.2 28.5511
31.4 991.7 28.7475
31.5 1016.6 29.1061
31.6 980.5 28.5847
31.7 1012.1 29.0416
31.8 985.2 28.6531
31.9 1048.0 29.5522
32.0 1029.2 29.2859
32.1 1030.0 29.2973
32.2 962.3 28.3181
32.3 982.4 28.6124
32.4 1014.4 29.0746
32.5 952.0 28.1662
32.6 1019.1 29.1419
32.7 1043.5 29.4887
32.8 1040.4 29.4449
32.9 1099.5 30.2696
33.0 1240.2 32.1481
33.1 1310.8 33.0505
33.2 1128.1 30.6608
33.3 1079.3 29.9903
33.4 1032.6 29.3343
33.5 1015.3 29.0875
33.6 973.2 28.4781
33.7 979.6 28.5715
33.8 954.1 28.1972
33.9 1029.0 29.2831
34.0 994.5 28.788
34.1 975.2 28.5073
34.2 1007.4 28.9741
34.3 977.8 28.5453
34.4 978.1 28.5497
34.5 963.7 28.3387
34.6 956.8 28.2371
34.7 1044.7 29.5056
34.8 977.1 28.5351
34.9 1011.0 29.0259
35.0 1066.9 29.8175
35.1 987.1 28.6807
35.2 1016.5 29.1047
35.3 999.4 28.8589
35.4 941.6 28.0119
35.5 1010.9 29.0244
35.6 1001.0 28.8819
35.7 1011.8 29.0373
35.8 1033.8 29.3513
35.9 895.6 27.3191
36.0 972.6 28.4693
36.1 1019.9 29.1533
36.2 1086.6 30.0915
36.3 1014.2 29.0718
36.4 990.4 28.7286
36.5 1029.0 29.2831
36.6 958.4 28.2607
36.7 999.0 28.8531
36.8 972.7 28.4707
36.9 958.6 28.2636
37.0 992.7 28.762
37.1 982.1 28.608
37.2 998.2 28.8415
37.3 1042.3 29.4717
37.4 1002.1 28.8978
37.5 985.3 28.6546
37.6 966.5 28.3799
37.7 1027.5 29.2617
37.8 1036.5 29.3896
37.9 1046.6 29.5325
38.0 988.8 28.7054
38.1 1058.6 29.7013
38.2 1007.8 28.9799
38.3 1018.6 29.1347
38.4 1019.3 29.1448
38.5 983.2 28.624
38.6 1046.8 29.5353
38.7 1006.6 28.9626
38.8 999.4 28.8589
38.9 997.7 28.8343
39.0 1044.2 29.4986
39.1 1006.0 28.954
39.2 964.5 28.3505
39.3 1009.2 29.0
39.4 969.8 28.4283
39.5 1000.9 28.8805
39.6 987.2 28.6822
39.7 997.0 28.8242
39.8 955.7 28.2209
39.9 975.3 28.5088
40.0 1023.1 29.199
40.1 979.4 28.5686
40.2 1001.5 28.8892
40.3 955.5 28.2179
40.4 969.3 28.4209
40.5 975.3 28.5088
40.6 1034.2 29.357
40.7 975.2 28.5073
40.8 1018.4 29.1319
40.9 1008.1 28.9842
41.0 998.4 28.8444
41.1 958.4 28.2607
41.2 1020.4 29.1605
41.3 1044.0 29.4958
41.4 934.4 27.9046
41.5 1011.5 29.033
41.6 1013.1 29.056
41.7 997.4 28.83
41.8 972.7 28.4707
41.9 948.0 28.1069
42.0 1045.2 29.5127
42.1 957.0 28.24
42.2 1019.0 29.1405
42.3 959.3 28.274
42.4 946.3 28.0817
42.5 952.2 28.1691
42.6 983.9 28.6342
42.7 1046.8 29.5353
42.8 997.1 28.8256
42.9 968.0 28.4019
43.0 1004.0 28.9252
43.1 1054.4 29.6423
43.2 1014.7 29.0789
43.3 974.9 28.5029
43.4 997.4 28.83
43.5 965.9 28.3711
43.6 970.9 28.4444
43.7 941.1 28.0045
43.8 976.4 28.5248
43.9 1001.0 28.8819
44.0 1069.4 29.8524
44.1 1423.5 34.442
44.2 1805.4 38.7879
44.3 1889.4 39.68
44.4 1668.1 37.2838
44.5 1316.4 33.121
44.6 1042.3 29.4717
44.7 1013.6 29.0631
44.8 984.3 28.64
44.9 1001.2 28.8848
45.0 1017.6 29.1204
45.1 952.4 28.1721
45.2 1008.1 28.9842
45.3 967.0 28.3872
45.4 1001.1 28.8834
45.5 927.1 27.7954
45.6 916.1 27.63
45.7 1020.6 29.1633
45.8 1016.4 29.1033
45.9 1044.8 29.5071
46.0 1011.9 29.0388
46.1 957.5 28.2474
46.2 990.9 28.7359
46.3 981.2 28.5949
46.4 992.6 28.7605
46.5 986.5 28.672
46.6 940.0 27.9881
46.7 1002.2 28.8993
46.8 1046.9 29.5367
46.9 990.1 28.7243
47.0 1019.3 29.1448
47.1 1010.0 29.0115
47.2 1072.0 29.8887
47.3 1280.7 32.6688
47.4 1697.4 37.6098
47.5 1798.5 38.7137
47.6 1703.0 37.6718
47.7 1496.6 35.3152
47.8 1077.6 29.9666
47.9 984.5 28.6429
48.0 1013.3 29.0588
48.1 965.7 28.3681
48.2 1001.4 28.8877
48.3 965.7 28.3681
48.4 1034.3 29.3584
48.5 981.0 28.592
48.6 984.1 28.6371
48.7 987.0 28.6793
48.8 1004.2 28.9281
48.9 1005.0 28.9396
49.0 1019.6 29.149
49.1 1035.3 29.3726
49.2 1015.3 29.0875
49.3 972.5 28.4678
49.4 975.3 28.5088
49.5 985.7 28.6604
49.6 937.5 27.9508
49.7 1007.9 28.9813
49.8 970.5 28.4385
49.9 1012.9 29.0531
50.0 991.4 28.7431
50.1 957.7 28.2504
50.2 1002.6 28.905
50.3 1010.9 29.0244
50.4 1018.3 29.1305
50.5 966.6 28.3813
50.6 983.6 28.6298
50.7 982.2 28.6094
50.8 1035.0 29.3684
50.9 945.5 28.0699
51.0 1035.7 29.3783
51.1 1070.9 29.8733
51.2 1010.4 29.0172
51.3 974.8 28.5015
51.4 1021.7 29.179
51.5 1019.2 29.1433
51.6 999.6 28.8617
51.7 1003.9 28.9237
51.8 1050.0 29.5804
51.9 1030.4 29.303
52.0 1021.9 29.1819
52.1 978.0 28.5482
52.2 966.7 28.3828
52.3 1035.6 29.3769
52.4 1083.5 30.0486
52.5 1041.4 29.459
52.6 1028.9 29.2817
52.7 989.0 28.7083
52.8 1003.5 28.918
52.9 1048.5 29.5593
53.0 1038.4 29.4165
53.1 1012.4 29.0459
53.2 1329.0 33.2791
53.3 2219.2 43.0039
53.4 3720.1001 55.6784
53.5 4360.0 60.2771
53.6 3884.5 56.8954
53.7 3733.3 55.7771
53.8 2436.2 45.0574
53.9 1229.9 32.0143
54.0 1151.3 30.9745
54.1 1072.7 29.8984
54.2 1045.4 29.5155
54.3 1018.1 29.1276
54.4 1008.6 28.9914
54.5 943.4 28.0387
54.6 1010.0 29.0115
54.7 995.9 28.8083
54.8 1051.1 29.5959
54.9 1072.5 29.8957
55.0 1119.9 30.5491
55.1 1108.0 30.3864
55.2 1046.2 29.5268
55.3 1111.7 30.4371
55.4 1046.6 29.5325
55.5 1022.0 29.1833
55.6 1069.9 29.8594
55.7 1009.2 29.0
55.8 998.5 28.8459
55.9 985.3 28.6546
56.0 1040.5 29.4463
56.1 1012.7 29.0502
56.2 1000.4 28.8733
56.3 1098.3 30.2531
56.4 1083.3 30.0458
56.5 1072.4 29.8943
56.6 1041.0 29.4534
56.7 996.8 28.8213
56.8 1004.7 28.9353
56.9 952.4 28.1721
57.0 1022.8 29.1947
57.1 913.9 27.5968
57.2 1040.9 29.4519
57.3 1014.4 29.0746
57.4 987.5 28.6865
57.5 1003.9 28.9237
57.6 1014.6 29.0775
57.7 961.4 28.3049
57.8 940.0 27.9881
57.9 1016.6 29.1061
58.0 992.5 28.7591
58.1 1035.9 29.3811
58.2 983.2 28.624
58.3 999.2 28.856
58.4 990.6 28.7315
58.5 962.0 28.3137
58.6 1021.0 29.169
58.7 1005.3 28.9439
58.8 1019.0 29.1405
58.9 1092.5 30.1731
59.0 1101.1 30.2916
59.1 1090.8 30.1496
59.2 1089.2 30.1275
59.3 1069.2 29.8496
59.4 1049.3 29.5705
59.5 1013.1 29.056
59.6 1036.2 29.3854
59.7 966.4 28.3784
59.8 1023.2 29.2005
59.9 1035.3 29.3726
60.0 1020.3 29.159
60.1 1007.2 28.9713
60.2 1037.9 29.4095
60.3 1058.2 29.6957
60.4 1034.5 29.3613
60.5 1027.4 29.2603
60.6 1011.4 29.0316
60.7 1014.6 29.0775
60.8 973.1 28.4766
60.9 1063.2 29.7658
61.0 990.3 28.7272
61.1 1005.1 28.941
61.2 1055.9 29.6634
61.3 1038.3 29.4151
61.4 1030.3 29.3016
61.5 1190.6 31.4987
61.6 1506.9 35.4366
61.7 1592.0 36.4234
61.8 1659.5 37.1876
61.9 1558.7 36.0405
62.0 1572.6 36.2008
62.1 1335.5 33.3604
62.2 1103.3 30.3219
62.3 982.7 28.6167
62.4 997.0 28.8242
62.5 1023.8 29.209
62.6 1024.5 29.219
62.7 1030.2 29.3002
62.8 1032.4 29.3314
62.9 1026.7 29.2504
63.0 998.2 28.8415
63.1 976.5 28.5263
63.2 1027.7 29.2646
63.3 1042.7 29.4774
63.4 1059.2 29.7097
63.5 978.0 28.5482
63.6 1001.0 28.8819
63.7 1010.9 29.0244
63.8 975.5 28.5117
63.9 980.8 28.589
64.0 1012.1 29.0416
64.1 1001.1 28.8834
64.2 1020.7 29.1648
64.3 990.0 28.7228
64.4 1016.5 29.1047
64.5 993.6 28.775
64.6 981.7 28.6022
64.7 963.1 28.3299
64.8 1014.2 29.0718
64.9 980.9 28.5905
65.0 1011.4 29.0316
65.1 1014.8 29.0803
65.2 994.3 28.7851
65.3 1046.6 29.5325
65.4 980.6 28.5861
65.5 1000.7 28.8776
65.6 988.2 28.6967
65.7 1009.8 29.0086
65.8 1072.9 29.9012
65.9 1073.6 29.911
66.0 1006.6 28.9626
66.1 993.0 28.7663
66.2 1026.2 29.2432
66.3 1002.6 28.905
66.4 1095.7 30.2173
66.5 1144.9 30.8882
66.6 1532.7 35.7386
66.7 2199.0 42.8077
66.8 2676.3 47.2255
66.9 2754.7 47.9122
67.0 2813.3999 48.42
67.1 2728.2 47.6812
67.2 2771.0 48.0538
67.3 1943.0 40.2389
67.4 1191.7 31.5132
67.5 1062.8 29.7602
67.6 1036.8 29.3939
67.7 1038.6 29.4194
67.8 1013.4 29.0603
67.9 976.3 28.5234
68.0 1052.1 29.61
68.1 1029.3 29.2874
68.2 1087.2 30.0998
68.3 1059.2 29.7097
68.4 1079.5 29.9931
68.5 1145.3 30.8936
68.6 1136.0 30.7679
68.7 1069.3 29.851
68.8 1087.9 30.1095
68.9 1041.0 29.4534
69.0 1010.5 29.0187
69.1 1164.3 31.1488
69.2 1388.1 34.011
69.3 1468.9 34.9869
69.4 1490.7 35.2456
69.5 1494.3 35.2881
69.6 1498.0 35.3318
69.7 1507.3 35.4413
69.8 1353.0 33.5783
69.9 968.2 28.4048
70.0 1018.8 29.1376
70.1 954.9 28.209
70.2 987.5 28.6865
70.3 957.1 28.2415
70.4 996.1 28.8112
70.5 950.2 28.1395
70.6 982.4 28.6124
70.7 933.9 27.8971
70.8 963.1 28.3299
70.9 1000.7 28.8776
71.0 982.5 28.6138
71.1 968.8 28.4136
71.2 1024.6 29.2204
71.3 980.6 28.5861
71.4 1020.4 29.1605
71.5 959.8 28.2813
71.6 949.9 28.1351
71.7 999.6 28.8617
71.8 938.6 27.9672
71.9 931.2 27.8568
72.0 923.9 27.7474
72.1 1005.7 28.9497
72.2 938.5 27.9658
72.3 985.5 28.6575
72.4 957.7 28.2504
72.5 958.0 28.2548
72.6 991.5 28.7446
72.7 988.9 28.7069
72.8 981.1 28.5934
72.9 963.2 28.3314
73.0 991.0 28.7373
73.1 949.7 28.1321
73.2 999.7 28.8632
73.3 949.1 28.1232
73.4 940.4 27.994
73.5 986.1 28.6662
73.6 940.6 27.997
73.7 972.6 28.4693
73.8 957.7 28.2504
73.9 982.7 28.6167
74.0 937.4 27.9494
74.1 964.2 28.3461
74.2 936.3 27.933
74.3 976.6 28.5278
74.4 890.4 27.2397
74.5 964.2 28.3461
74.6 987.7 28.6894
74.7 944.4 28.0535
74.8 996.2 28.8126
74.9 989.5 28.7156
75.0 907.8 27.5045
75.1 988.5 28.701
75.2 989.7 28.7185
75.3 997.8 28.8357
75.4 961.7 28.3093
75.5 979.7 28.573
75.6 967.9 28.4004
75.7 931.5 27.8613
75.8 970.0 28.4312
75.9 1039.4 29.4307
76.0 961.1 28.3005
76.1 1002.3 28.9007
76.2 1147.5 30.9233
76.3 1463.3 34.9201
76.4 2162.3 42.449
76.5 2757.3999 47.9357
76.6 3040.2 50.3339
76.7 3278.3999 52.2685
76.8 3509.8999 54.0825
76.9 3179.8 51.4765
77.0 3575.7 54.5871
77.1 3051.2 50.4249
77.2 1896.1 39.7503
77.3 1269.9 32.5308
77.4 1041.1 29.4548
77.5 1009.4 29.0029
77.6 999.8 28.8646
77.7 982.1 28.608
77.8 979.3 28.5672
77.9 1023.9 29.2104
78.0 948.5 28.1143
78.1 1005.8 28.9511
78.2 979.4 28.5686
78.3 990.2 28.7257
78.4 972.9 28.4737
78.5 935.6 27.9225
78.6 1007.9 28.9813
78.7 984.8 28.6473
78.8 992.5 28.7591
78.9 1001.2 28.8848
79.0 953.9 28.1943
79.1 993.8 28.7779
79.2 968.5 28.4092
79.3 1004.4 28.931
79.4 964.0 28.3431
79.5 957.2 28.243
79.6 950.9 28.1499
79.7 1013.6 29.0631
79.8 1004.9 28.9382
79.9 963.9 28.3417
80.0 1002.4 28.9021
80.1 976.9 28.5321
80.2 986.8 28.6764
80.3 988.1 28.6952
80.4 957.9 28.2533
80.5 995.0 28.7953
80.6 988.5 28.701
80.7 1047.0 29.5381
80.8 1018.2 29.129
80.9 1035.2 29.3712
81.0 1051.9 29.6071
81.1 1113.4 30.4604
81.2 1104.9 30.3439
81.3 1105.8 30.3562
81.4 1101.2 30.293
81.5 1089.2 30.1275
81.6 1121.3 30.5682
81.7 1105.1 30.3466
81.8 1178.1 31.3329
81.9 1102.1 30.3054
82.0 1066.2 29.8077
82.1 1038.7 29.4208
82.2 1034.6 29.3627
82.3 1046.4 29.5296
82.4 1129.4 30.6784
82.5 1062.0 29.7489
82.6 1011.9 29.0388
82.7 1055.1 29.6521
82.8 1053.7 29.6325
82.9 1060.8 29.7321
83.0 1042.2 29.4703
83.1 991.5 28.7446
83.2 1106.4 30.3645
83.3 1026.1 29.2418
83.4 1010.7 29.0215
83.5 1046.9 29.5367
83.6 1044.0 29.4958
83.7 1057.5 29.6859
83.8 1038.7 29.4208
83.9 1085.0 30.0694
84.0 1045.3 29.5141
84.1 1081.9 30.0264
84.2 1077.3 29.9625
84.3 1121.4 30.5696
84.4 1092.0 30.1662
84.5 1100.5 30.2834
84.6 1127.3 30.6499
84.7 1139.4 30.814
84.8 1067.9 29.8315
84.9 1044.1 29.4972
85.0 1130.6 30.6947
85.1 1094.6 30.2021
85.2 1082.7 30.0375
85.3 1101.5 30.2971
85.4 1064.3 29.7811
85.5 1131.7 30.7097
85.6 1095.4 30.2131
85.7 1100.8 30.2875
85.8 1132.7 30.7232
85.9 1049.2 29.5691
86.0 1151.3 30.9745
86.1 1079.7 29.9958
86.2 1138.9 30.8072
86.3 1151.7 30.9798
86.4 1160.5 31.098
86.5 1203.3 31.6662
86.6 1142.7 30.8585
86.7 1111.1 30.4289
86.8 1103.4 30.3233
86.9 1113.4 30.4604
87.0 1103.0 30.3178
87.1 1086.1 30.0846
87.2 1100.5 30.2834
87.3 1111.2 30.4302
87.4 1142.1 30.8504
87.5 1093.9 30.1924
87.6 1148.9 30.9422
87.7 1141.3 30.8396
87.8 1149.5 30.9502
87.9 1270.4 32.5372
88.0 1399.7 34.1528
88.1 1761.9 38.3177
88.2 1849.3 39.2566
88.3 2031.7 41.1471
88.4 2096.0 41.7931
88.5 2187.8999 42.6995
88.6 2158.0 42.4068
88.7 2147.6001 42.3045
88.8 2247.7 43.2791
88.9 2131.8999 42.1495
89.0 1666.2 37.2626
89.1 1374.5 33.844
89.2 1259.9 32.4024
89.3 1223.5 31.9309
89.4 1194.3 31.5476
89.5 1137.7 30.791
89.6 1133.6 30.7354
89.7 1143.2 30.8653
89.8 1131.1 30.7015
89.9 1169.7 31.221
90.0 1115.3 30.4863
90.1 1088.6 30.1192
90.2 1176.6 31.3129
90.3 1214.1 31.808
90.4 1159.6 31.0859
90.5 1191.9 31.5159
90.6 1160.1 31.0926
90.7 1173.6 31.273
90.8 1186.2 31.4404
90.9 1154.6 31.0188
91.0 1172.2 31.2543
91.1 1173.4 31.2703
91.2 1176.7 31.3143
91.3 1166.6 31.1796
91.4 1220.6 31.893
91.5 1187.4 31.4563
91.6 1131.9 30.7124
91.7 1188.9 31.4762
91.8 1182.2 31.3874
91.9 1151.0 30.9704
92.0 1197.7 31.5925
92.1 1192.6 31.5251
92.2 1258.0 32.378
92.3 1253.6 32.3213
92.4 1345.1 33.4801
92.5 1496.4 35.3129
92.6 1846.5 39.2269
92.7 2283.8 43.6253
92.8 2406.0 44.7772
92.9 2568.3999 46.2637
93.0 2836.7 48.6201
93.1 2960.3999 49.6689
93.2 3143.6001 51.1827
93.3 2990.6001 49.9216
93.4 3092.1001 50.7617
93.5 3136.7 51.1265
