
data_powder1
loop_
_pd_meas_2theta
_pd_meas_intensity_plus
_pd_meas_intensity_plus_sigma
_pd_meas_intensity_minus
_pd_meas_intensity_minus_sigma
4.6    626.97    93.64    413.31    90.64  
4.8    708.72    91.83    749.57    92.55  
5.0    718.07    89.38    575.64    87.29  
5.2    679.62    86.86    595.28    85.63  
5.4    683.03    84.66    580.64    83.17  
5.6    727.63    83.54    705.12    83.16  
5.8    709.16    83.16    653.77    82.39  
6.0    765.5     81.54    654.01    79.82  
6.2    813.4     80.76    865.23    81.57  
6.4    613.4     78.81    727.05    80.57  
6.6    530.91    76.38    458.89    75.37  
6.8    892.05    79.61    610.54    75.48  
7.0    932.68    79.59    733.16    76.68  
7.2    1611.08   89.13    863.58    79.1   
7.4    3505.62   109.22   1711.89   88.84  
7.6    5658.21   131.62   2033.16   95.3   
7.8    5454.61   124.07   2091.49   91.29  
8.0    3593.33   88.07    1460.03   68.68  
8.2    1720.63   70.73    906.5     61.95  
8.4    974.33    61.94    877.03    60.86  
8.6    1670.12   68.42    1546.15   67.16  
8.8    2380.65   76.38    2531.38   77.76  
9.0    2816.17   80.7     2649.69   79.25  
9.2    2271.4    72.72    2171.75   71.75  
9.4    1246.23   62.53    1157.09   61.57  
9.6    674.62    56.73    593.59    55.76  
9.8    690.47    55.49    574.28    54.09  
10.0   650.11    54.77    447.35    52.21  
10.2   497.37    53.33    447.73    52.69  
10.4   549.61    52.2     475.87    51.27  
10.6   619.58    53.45    436.48    51.27  
10.8   631.83    52.53    653.12    52.77  
11.0   459.72    51.33    493.73    51.79  
11.2   439.19    51.03    571.14    52.61  
11.4   455.23    51.0     406.06    50.45  
11.6   538.38    50.19    536.0     50.17  
11.8   573.93    46.73    579.49    46.81  
12.0   502.59    37.94    624.97    39.05  
12.2   382.09    37.94    483.5     38.88  
12.4   548.98    38.74    632.66    39.48  
12.6   759.49    40.63    910.88    41.91  
12.8   938.97    42.75    1051.91   43.68  
13.0   966.57    41.93    1127.24   43.23  
13.2   883.26    40.74    887.27    40.78  
13.4   599.7     38.5     592.61    38.42  
13.6   501.64    37.63    467.09    37.31  
13.8   406.53    37.28    396.74    37.19  
14.0   443.33    36.77    448.14    36.81  
14.2   397.42    36.61    482.8     37.39  
14.4   574.92    37.05    536.58    36.71  
14.6   672.48    38.06    514.49    36.69  
14.8   1218.7    42.36    956.73    40.3   
15.0   2038.32   48.33    1581.72   45.19  
15.2   2473.27   51.42    1823.2    47.18  
15.4   2408.49   51.36    1607.34   46.02  
15.6   1924.68   47.46    1161.06   42.19  
15.8   1843.13   46.2     916.4     39.55  
16.0   1535.92   40.56    739.87    35.15  
16.2   1223.09   38.0     704.68    34.3   
16.4   781.62    34.78    576.06    33.25  
16.6   619.03    33.13    497.22    32.16  
16.8   505.57    31.83    598.13    32.55  
17.0   513.34    31.68    462.2     31.27  
17.2   489.86    31.63    426.67    31.16  
17.4   451.39    31.36    501.7     31.76  
17.6   508.04    31.77    475.44    31.52  
17.8   581.81    32.38    541.25    32.05  
18.0   562.86    32.51    906.08    34.98  
18.2   766.89    33.35    1573.5    38.62  
18.4   817.74    33.59    2054.02   41.36  
18.6   796.7     33.16    1995.08   40.81  
18.8   750.51    32.89    1463.24   37.67  
19.0   484.9     31.53    800.24    33.81  
19.2   612.94    32.68    679.12    33.16  
19.4   781.23    34.38    676.61    33.67  
19.6   1289.18   38.78    876.5     36.32  
19.8   2615.92   46.49    1533.95   40.91  
20.0   4003.54   51.29    2123.31   42.79  
20.2   4419.98   50.0     2327.75   41.09  
20.4   3733.59   46.73    1967.75   38.7   
20.6   2353.72   39.82    1378.38   34.74  
20.8   1232.64   32.87    838.03    30.55  
21.0   766.54    29.84    696.61    29.41  
21.2   641.73    28.8     530.86    28.07  
21.4   527.51    27.72    561.44    27.95  
21.6   530.99    28.18    446.06    27.62  
21.8   490.1     28.25    494.58    28.27  
22.0   514.55    29.3     500.51    29.22  
22.2   533.06    32.35    467.21    31.99  
22.4   648.52    35.82    582.96    35.5   
22.6   917.85    38.65    732.61    37.78  
22.8   1039.3    39.21    799.88    38.09  
23.0   939.74    37.64    802.83    36.98  
23.2   699.73    35.78    518.17    34.86  
23.4   775.6     35.29    659.02    34.71  
23.6   928.82    36.02    793.95    35.33  
23.8   1633.96   37.75    1023.04   34.74  
24.0   2188.94   38.83    1296.8    34.47  
24.2   2444.96   38.05    1446.82   33.24  
24.4   2116.27   32.38    1214.12   28.23  
24.6   1543.45   29.04    942.93    26.11  
24.8   977.04    26.34    667.36    24.66  
25.0   628.41    24.67    492.07    23.89  
25.2   487.43    24.15    480.94    24.11  
25.4   497.39    24.17    447.33    23.88  
25.6   647.35    25.27    465.6     24.25  
25.8   1052.79   27.22    625.33    24.98  
26.0   1649.1    29.87    849.44    25.96  
26.2   2207.57   32.63    1046.96   27.24  
26.4   2333.0    32.98    1095.76   27.27  
26.6   2142.82   32.02    1004.78   26.64  
26.8   1673.56   29.65    836.33    25.43  
27.0   1322.86   27.92    765.03    24.99  
27.2   1287.82   27.03    830.93    24.66  
27.4   1472.66   28.48    1048.04   26.34  
27.6   1567.65   29.09    1103.57   26.79  
27.8   1574.07   29.08    1100.41   26.74  
28.0   1399.46   27.96    1031.16   26.08  
28.2   1030.61   26.35    743.96    24.8   
28.4   758.88    24.54    606.56    23.69  
28.6   628.06    23.52    556.65    23.12  
28.8   445.17    21.95    382.78    21.6   
29.0   449.58    21.93    467.35    22.03  
29.2   503.8     22.35    448.32    22.03  
29.4   509.06    22.33    546.19    22.53  
29.6   497.25    22.31    507.6     22.37  
29.8   490.91    21.67    560.91    22.05  
30.0   462.58    22.04    470.28    22.09  
30.2   561.88    22.53    470.89    22.02  
30.4   611.56    22.93    457.03    22.07  
30.6   801.05    24.01    517.54    22.48  
30.8   996.87    24.87    583.47    22.7   
31.0   1032.46   24.83    530.61    22.22  
31.2   964.6     24.52    545.47    22.32  
31.4   813.86    24.21    450.4     22.26  
31.6   686.45    23.58    412.7     22.08  
31.8   549.7     22.98    454.26    22.45  
32.0   422.51    22.74    341.25    22.29  
32.2   395.75    22.67    454.49    22.99  
32.4   505.26    22.81    514.08    22.85  
32.6   592.33    23.73    597.95    23.76  
32.8   578.01    23.9     627.39    24.15  
33.0   690.8     24.41    637.12    24.14  
33.2   904.55    24.59    776.17    23.95  
33.4   963.1     24.19    867.92    23.74  
33.6   1014.36   24.24    828.51    23.38  
33.8   1026.12   24.2     829.64    23.28  
34.0   835.89    23.52    712.27    22.92  
34.2   763.65    22.83    579.33    21.9   
34.4   633.36    21.85    547.65    21.4   
34.6   522.38    21.3     495.49    21.16  
34.8   468.79    20.78    426.16    20.56  
35.0   516.68    21.05    450.68    20.7   
35.2   517.87    21.25    468.35    20.99  
35.4   564.38    21.54    497.42    21.18  
35.6   659.37    21.96    554.5     21.41  
35.8   739.31    22.34    640.63    21.83  
36.0   780.55    22.82    714.19    22.49  
36.2   813.37    22.41    736.49    22.03  
36.4   824.91    22.94    682.31    22.22  
36.6   699.62    22.55    579.61    21.93  
36.8   648.17    22.53    553.46    22.05  
37.0   618.88    22.13    477.1     21.39  
37.2   616.44    22.19    463.55    21.39  
37.4   606.81    22.1     436.42    21.22  
37.6   760.71    22.67    510.51    21.4   
37.8   823.09    23.34    539.36    21.91  
38.0   1037.79   24.07    670.68    22.32  
38.2   1246.18   23.53    772.13    21.5   
38.4   1453.93   24.36    901.2     22.05  
38.6   1511.67   24.69    929.03    22.29  
38.8   1552.58   24.28    959.34    21.89  
39.0   1442.43   24.36    875.0     22.0   
39.2   1255.67   23.54    811.69    21.64  
39.4   1091.87   23.01    718.89    21.39  
39.6   994.66    22.68    794.16    21.81  
39.8   951.74    22.64    758.71    21.8   
40.0   965.42    22.32    805.74    21.64  
40.2   1014.54   22.55    825.05    21.74  
40.4   1103.25   23.07    834.5     21.91  
40.6   1184.43   23.15    847.84    21.69  
40.8   1163.32   23.0     841.6     21.6   
41.0   1189.78   22.82    840.43    21.29  
41.2   1103.75   22.47    744.38    20.87  
41.4   987.65    21.68    651.18    20.18  
41.6   895.73    21.68    550.27    20.08  
41.8   770.71    21.06    536.03    19.96  
42.0   739.94    20.69    566.98    19.86  
42.2   611.68    20.21    497.18    19.66  
42.4   579.35    20.14    496.71    19.75  
42.6   674.59    20.47    612.71    20.18  
42.8   799.77    21.0     660.72    20.36  
43.0   918.99    21.8     759.38    21.07  
43.2   970.8     21.71    813.78    21.02  
43.4   989.3     21.27    775.88    20.34  
43.6   935.56    21.05    741.83    20.21  
43.8   858.98    20.78    653.32    19.86  
44.0   747.31    19.91    644.53    19.46  
44.2   612.06    19.8     536.06    19.45  
44.4   593.74    19.54    552.9     19.36  
44.6   530.94    19.27    489.24    19.07  
44.8   528.63    19.13    500.05    19.0   
45.0   469.52    19.06    430.64    18.87  
45.2   534.29    19.03    473.4     18.74  
45.4   525.74    19.05    434.18    18.61  
45.6   550.94    19.36    430.33    18.78  
45.8   506.21    19.46    369.13    18.8   
46.0   552.6     19.45    408.85    18.76  
46.2   553.46    19.66    382.02    18.84  
46.4   687.62    19.99    445.8     18.86  
46.6   788.41    20.57    527.19    19.39  
46.8   865.62    21.07    582.79    19.8   
47.0   989.21    21.73    621.68    20.12  
47.2   1036.96   21.86    704.48    20.41  
47.4   1098.85   22.19    779.26    20.82  
47.6   1102.77   22.26    749.03    20.76  
47.8   1075.87   21.73    806.1     20.6   
48.0   1080.76   22.09    777.22    20.78  
48.2   966.23    21.67    775.51    20.84  
48.4   931.75    21.65    720.35    20.71  
48.6   951.5     21.58    724.42    20.58  
48.8   1002.48   21.72    756.01    20.64  
49.0   1031.25   20.95    788.1     19.94  
49.2   1069.0    21.06    796.87    19.93  
49.4   1083.97   21.42    778.77    20.16  
49.6   1064.51   21.38    774.61    20.16  
49.8   974.36    21.06    687.69    19.84  
50.0   951.34    20.77    694.11    19.66  
50.2   804.2     20.45    559.25    19.39  
50.4   714.32    19.84    494.37    18.89  
50.6   623.51    19.99    430.84    19.13  
50.8   586.16    19.9     364.58    18.88  
51.0   543.88    19.66    424.13    19.12  
51.2   488.87    19.43    342.94    18.76  
51.4   447.83    19.32    354.02    18.9   
51.6   513.26    19.42    340.74    18.63  
51.8   460.48    19.29    365.78    18.86  
52.0   478.07    19.69    385.82    19.27  
52.2   469.2     19.64    416.23    19.4   
52.4   457.61    19.69    420.67    19.53  
52.6   436.64    19.66    387.2     19.42  
52.8   469.28    19.9     363.95    19.42  
53.0   454.48    19.45    393.31    19.17  
53.2   433.11    19.83    384.81    19.61  
53.4   452.99    19.92    393.66    19.66  
53.6   460.91    20.11    385.75    19.77  
53.8   479.42    20.05    372.58    19.56  
54.0   514.08    20.17    406.62    19.69  
54.2   520.71    20.18    373.26    19.53  
54.4   556.73    20.36    444.45    19.87  
54.6   640.13    20.93    460.57    20.15  
54.8   772.45    21.23    619.57    20.56  
55.0   745.57    21.06    596.61    20.42  
55.2   827.09    21.06    654.5     20.32  
55.4   863.2     19.97    682.19    19.24  
55.6   816.19    19.45    712.54    19.04  
55.8   802.26    19.82    725.82    19.5   
56.0   762.03    19.72    668.88    19.34  
56.2   748.92    19.44    690.69    19.19  
56.4   764.06    19.41    674.79    19.05  
56.6   673.13    19.15    624.78    18.95  
56.8   658.88    18.93    591.05    18.65  
57.0   656.83    18.95    574.08    18.59  
57.2   647.48    19.0     549.5     18.58  
57.4   632.71    19.01    532.24    18.58  
57.6   579.93    18.76    485.92    18.35  
57.8   559.33    18.67    495.27    18.41  
58.0   578.68    18.69    409.25    17.96  
58.2   584.81    18.83    417.08    18.11  
58.4   575.37    19.05    432.76    18.46  
58.6   603.54    19.11    447.21    18.45  
58.8   640.61    19.32    474.09    18.6   
59.0   684.9     19.35    529.04    18.68  
59.2   710.68    19.57    544.5     18.87  
59.4   787.38    19.55    615.82    18.84  
59.6   809.81    20.02    642.48    19.34  
59.8   823.77    19.97    695.08    19.44  
60.0   826.28    20.05    698.82    19.54  
60.2   838.05    20.14    678.24    19.49  
60.4   754.59    19.7     635.75    19.21  
60.6   714.59    19.58    604.37    19.14  
60.8   688.71    19.42    583.78    19.01  
61.0   696.51    19.61    582.59    19.13  
61.2   675.24    19.53    569.0     19.08  
61.4   613.01    19.43    457.24    18.76  
61.6   637.1     19.31    470.77    18.6   
61.8   544.48    19.14    396.37    18.5   
62.0   516.27    18.73    352.58    18.03  
62.2   455.27    18.93    362.03    18.51  
62.4   474.72    19.0     379.43    18.6   
62.6   456.16    18.89    383.13    18.55  
62.8   466.05    18.86    356.88    18.37  
63.0   456.94    18.38    326.35    17.84  
63.2   440.41    18.02    354.34    17.65  
63.4   512.77    18.29    418.84    17.88  
63.6   488.59    18.45    414.36    18.14  
63.8   548.22    18.59    454.19    18.17  
64.0   630.73    18.73    492.07    18.14  
64.2   605.66    18.78    437.66    18.07  
64.4   659.66    18.98    516.44    18.38  
64.6   782.99    19.1     592.39    18.33  
64.8   839.92    19.7     625.32    18.81  
65.0   919.4     19.95    696.39    19.04  
65.2   924.99    20.01    707.15    19.14  
65.4   1017.5    20.21    801.94    19.36  
65.6   1000.25   20.27    785.1     19.42  
65.8   1035.91   20.12    838.97    19.36  
66.0   1062.77   20.26    814.77    19.29  
66.2   1023.34   20.31    820.36    19.51  
66.4   950.9     20.05    786.3     19.38  
66.6   901.83    19.85    723.91    19.11  
66.8   858.09    19.68    703.26    19.04  
67.0   788.71    19.33    663.21    18.81  
67.2   818.61    19.15    622.0     18.35  
67.4   731.56    19.16    609.02    18.65  
67.6   699.64    19.07    587.8     18.58  
67.8   615.29    18.76    508.89    18.3   
68.0   584.64    18.69    450.59    18.11  
68.2   610.66    18.77    481.61    18.19  
68.4   515.66    18.57    438.07    18.22  
68.6   566.21    18.84    513.38    18.61  
68.8   557.98    19.09    489.74    18.8   
69.0   590.37    19.1     496.35    18.68  
69.2   602.21    19.1     494.58    18.61  
69.4   610.71    19.04    558.7     18.8   
69.6   631.87    19.24    495.94    18.65  
69.8   614.17    19.33    526.89    18.93  
70.0   591.01    19.73    555.2     19.57  
70.2   682.02    19.9     570.09    19.41  
70.4   671.82    19.93    558.63    19.42  
70.6   620.64    19.65    564.74    19.4   
70.8   672.9     19.91    521.03    19.23  
71.0   623.43    19.82    521.46    19.37  
71.2   650.8     20.39    527.79    19.83  
71.4   656.9     20.31    562.97    19.88  
71.6   610.22    20.36    494.24    19.83  
71.8   570.86    20.2     472.73    19.73  
72.0   576.21    20.21    466.77    19.7   
72.2   611.69    20.39    520.16    19.97  
72.4   659.55    20.73    527.62    20.12  
72.6   614.16    20.83    557.11    20.54  
72.8   639.04    21.14    550.08    20.71  
73.0   596.43    20.82    572.05    20.7   
73.2   557.56    20.74    532.2     20.61  
73.4   562.18    20.65    539.59    20.54  
73.6   614.91    20.34    573.38    20.15  
73.8   648.89    20.81    601.64    20.6   
74.0   644.83    20.9     598.98    20.67  
74.2   647.35    20.85    604.49    20.66  
74.4   625.47    20.75    583.45    20.56  
74.6   659.67    20.98    571.6     20.56  
74.8   598.98    20.63    555.6     20.43  
75.0   649.05    21.1     590.07    20.82  
75.2   720.45    21.57    600.83    21.01  
75.4   704.04    21.52    644.58    21.24  
75.6   639.5     21.38    591.09    21.14  
75.8   681.64    21.39    628.85    21.15  
76.0   717.42    21.59    602.84    21.04  
76.2   691.49    21.53    616.86    21.16  
76.4   666.95    21.93    634.47    21.77  
76.6   670.42    22.02    540.49    21.38  
76.8   627.38    21.94    483.2     21.22  
77.0   554.07    21.69    521.92    21.53  
77.2   578.27    21.76    535.31    21.53  
77.4   603.68    21.85    443.49    21.07  
77.6   612.98    22.41    433.23    21.49  
77.8   636.95    22.6     496.25    21.89  
78.0   602.01    22.52    449.83    21.72  
78.2   605.13    22.55    514.09    22.08  
78.4   618.76    22.5     485.65    21.8   
78.6   583.18    22.41    487.78    21.93  
78.8   586.35    22.52    510.53    22.15  
79.0   633.06    23.39    538.35    22.92  
79.2   668.07    23.68    592.58    23.3   
79.4   673.48    23.59    539.33    22.89  
79.6   620.36    23.39    568.03    23.12  
79.8   697.11    23.49    609.58    23.03  
80.0   696.35    23.69    559.43    23.0   
80.2   673.4     23.99    578.5     23.48  
80.4   715.34    24.45    631.24    24.0   
80.6   625.41    23.98    627.0     23.99  
80.8   659.25    24.3     600.44    24.0   
81.0   617.92    24.1     526.94    23.63  
81.2   643.9     24.21    551.74    23.72  
81.4   610.43    24.05    570.73    23.84  
81.6   687.21    25.11    535.41    24.27  
81.8   604.92    24.92    559.32    24.65  
82.0   589.97    24.97    499.26    24.46  
