
data_pnd
loop_
_pd_meas_2theta
_pd_meas_intensity_up
_pd_meas_intensity_up_sigma
_pd_meas_intensity_down
_pd_meas_intensity_down_sigma
4.4 276.92464 253.12697 347.33261 245.00986
4.6 268.35622 162.27344 344.61466 162.33524
4.8 205.68434 125.32314 309.75453 127.87127
5.0 307.18208 111.22012 211.60625 109.79026
5.2 249.87485 97.61207 247.67661 97.2894
5.4 237.05467 82.32641 281.62474 83.13366
5.6 273.83934 70.4557 234.218 69.81809
5.8 261.19285 66.14612 191.66285 66.2973
6.0 203.79106 59.92047 213.65555 60.54869
6.2 181.92202 58.12971 250.14035 58.62702
6.4 215.63656 55.0115 223.39524 55.43394
6.6 190.13328 52.70654 155.09216 52.94039
6.8 202.9152 47.79418 208.95459 47.71753
7.0 251.7314 45.61243 198.48637 45.41117
7.2 224.2579 44.70521 176.60016 44.194
7.4 216.16015 42.53581 157.11169 42.76838
7.6 189.01319 41.60111 180.5868 41.4609
7.8 145.07619 39.75189 216.26887 39.71398
8.0 206.71284 36.7351 195.97564 36.84173
8.2 183.6843 36.42061 203.59352 36.46986
8.4 169.41783 34.98082 168.97214 34.90227
8.6 171.74569 34.64736 185.18599 34.60243
8.8 175.34446 33.686 188.13266 33.63003
9.0 207.36007 31.97759 183.82098 31.99908
9.2 193.69284 30.68267 155.43338 30.56517
9.4 192.1614 30.13037 203.13483 30.25941
9.6 184.84235 29.53258 204.95456 29.41204
9.8 173.43957 29.02641 176.73551 29.10365
10.0 180.31984 28.49124 184.6922 28.47456
10.2 182.67721 26.8855 176.10072 26.8625
10.4 192.40581 26.33115 160.49695 26.28884
10.6 186.10276 25.81657 179.5374 25.84404
10.8 202.31819 24.48473 197.54131 24.44811
11.0 194.79465 24.02894 180.75213 23.98463
11.2 189.64407 23.69569 175.24406 23.62159
11.4 195.53284 22.35316 187.55647 22.39225
11.6 185.84551 22.21146 184.73482 22.21848
11.8 216.92414 22.00185 185.08513 21.95379
12.0 206.9874 21.59044 190.49165 21.46263
12.2 185.39903 21.48288 196.2859 21.4633
12.4 203.5231 20.93162 173.4744 20.90327
12.6 195.78407 20.187 181.37231 20.11554
12.8 208.07479 19.76111 194.02827 19.74116
13.0 204.15531 19.67525 179.86102 19.61628
13.2 205.03864 19.58497 195.84647 19.43503
13.4 190.58009 19.17499 181.82363 19.19607
13.6 201.37427 18.72654 182.06792 18.71421
13.8 199.85956 18.16251 184.86684 18.10813
14.0 201.0167 18.04109 188.17995 18.01527
14.2 199.19693 17.80935 187.08269 17.78566
14.4 196.99479 17.63381 186.13759 17.6061
14.6 203.93837 17.50242 186.06879 17.43406
14.8 188.92603 16.98718 178.79183 16.90794
15.0 196.94934 16.56887 185.03497 16.51807
15.2 193.67328 16.48144 194.86883 16.46376
15.4 197.98315 16.27007 190.64523 16.28519
15.6 201.28344 16.19781 198.45687 16.17817
15.8 205.33385 15.99942 195.71113 16.00212
16.0 197.67043 15.4472 185.76475 15.4307
16.2 193.2101 15.16335 198.85192 15.16551
16.4 197.32469 14.73416 203.05721 14.7466
16.6 199.57566 14.64291 193.02837 14.63033
16.8 200.95222 14.47788 193.46387 14.47322
17.0 201.06509 14.40773 190.3471 14.38152
17.2 206.45257 13.94413 197.49815 13.90716
17.4 193.71233 13.81015 189.90943 13.79541
17.6 216.70482 13.73524 187.83213 13.6818
17.8 216.88864 13.64043 200.0058 13.59362
18.0 209.76098 13.54285 205.58671 13.48551
18.2 224.01352 13.46255 215.5049 13.44047
18.4 219.20032 13.04562 205.69559 12.987
18.6 225.37734 12.9091 213.34707 12.88976
18.8 222.70363 12.81063 216.03073 12.83532
19.0 219.33129 12.71973 213.28046 12.73612
19.2 227.58358 12.673 202.55875 12.64829
19.4 206.80822 12.52866 210.45486 12.52262
19.6 219.27946 12.21748 208.22164 12.20513
19.8 221.58919 12.12413 211.09179 12.07785
20.0 225.10101 12.03648 220.38816 12.03423
20.2 224.91615 11.98599 221.12365 11.97882
20.4 221.75023 11.90429 221.81997 11.90781
20.6 228.61165 11.85944 216.2645 11.83371
20.8 236.78639 11.49059 219.69996 11.46312
21.0 235.91993 11.45272 236.43228 11.4351
21.2 247.416 11.35012 221.44646 11.33174
21.4 243.05026 11.31105 222.2641 11.28885
21.6 234.43844 11.25036 229.44283 11.24376
21.8 241.37767 11.19268 224.88189 11.17934
22.0 234.0021 10.65562 228.16672 10.64843
22.2 239.40858 10.62104 225.39079 10.57872
22.4 238.92815 10.51444 224.31306 10.49632
22.6 239.50853 10.48589 232.29162 10.4847
22.8 247.6645 10.40997 238.92475 10.42731
23.0 244.59913 10.37646 228.38891 10.34082
23.2 251.8534 10.13392 236.09879 10.10763
23.4 255.6945 10.07143 233.46544 10.03235
23.6 257.36365 10.02357 241.99608 10.01047
23.8 247.51105 9.97417 233.63427 9.94486
24.0 250.06969 9.93808 237.45493 9.90388
24.2 245.67531 9.85632 237.23376 9.83674
24.4 256.92215 9.67145 239.56385 9.65476
24.6 253.85065 9.5887 244.82661 9.5649
24.8 262.89465 9.54298 243.43704 9.53333
25.0 262.71223 9.50207 246.99507 9.4812
25.2 277.08546 9.49154 254.60353 9.44515
25.4 271.79888 9.43587 250.12218 9.39224
25.6 271.00177 9.29589 256.0012 9.26953
25.8 285.11516 9.18542 265.75036 9.14893
26.0 296.59718 9.16207 260.34375 9.11015
26.2 318.5923 9.16238 268.42976 9.07323
26.4 365.30113 9.21305 308.94754 9.10063
26.6 438.73894 9.39048 352.9247 9.17017
26.8 574.80311 9.68293 436.59921 9.28405
27.0 726.73717 10.03023 534.46784 9.35946
27.2 944.50366 10.78726 656.35192 9.72935
27.4 1227.01625 11.83817 835.2943 10.29306
27.6 1578.38724 13.07997 1018.06933 10.94723
27.8 1956.35326 14.24827 1214.58017 11.57491
28.0 2272.285 15.06817 1325.86963 11.80511
28.2 2236.92397 14.65917 1281.83312 11.43653
28.4 1913.52293 13.55082 1119.65659 10.78484
28.6 1436.91551 11.9037 896.12565 9.915
28.8 1010.69897 10.30244 659.93092 9.08632
29.0 689.72939 9.17383 487.04777 8.54748
29.2 482.57183 8.49941 361.43933 8.23653
29.4 361.06271 8.13219 303.02908 8.03543
29.6 312.79047 7.94848 282.84154 7.89183
29.8 298.8059 7.91774 270.54241 7.8771
30.0 289.26086 7.88649 264.89314 7.85357
30.2 293.415 7.90078 268.04541 7.86898
30.4 291.03425 7.89186 271.62556 7.86187
30.6 280.78603 7.86523 262.98785 7.83638
30.8 279.53947 7.76021 259.50542 7.73405
31.0 281.00334 7.75374 264.08699 7.72524
31.2 267.68145 7.74605 250.97146 7.71913
31.4 268.92665 7.75433 258.00507 7.733
31.6 266.34356 7.73881 254.42038 7.72736
31.8 270.97551 7.75144 259.57279 7.73051
32.0 268.4994 7.67701 254.50559 7.65878
32.2 265.26366 7.61614 250.70009 7.60733
32.4 267.98969 7.62979 269.54011 7.62372
32.6 262.9083 7.61819 260.40741 7.61552
32.8 265.99639 7.62127 251.14262 7.60624
33.0 262.9438 7.63014 254.18296 7.61799
33.2 262.59553 7.62029 253.19508 7.6019
33.4 267.73362 7.52992 258.5914 7.52991
33.6 260.37097 7.49016 259.65995 7.47995
33.8 257.14401 7.49961 256.95284 7.49569
34.0 255.84332 7.50573 251.46325 7.48598
34.2 266.68265 7.41845 248.52552 7.39957
34.4 259.32602 7.39499 245.82566 7.3921
34.6 257.07851 7.38781 244.14218 7.37632
34.8 259.88332 7.29165 253.86871 7.28518
35.0 264.54736 7.3033 245.01882 7.29298
35.2 260.10071 7.29228 252.47705 7.29213
35.4 256.11048 7.28879 253.3494 7.29098
35.6 253.01989 7.28838 248.19863 7.27712
35.8 260.64243 7.29231 252.38513 7.29416
36.0 258.48603 7.27299 257.19169 7.26856
36.2 268.92192 7.21097 250.50097 7.19407
36.4 264.87217 7.21196 252.98016 7.19504
36.6 264.30457 7.19909 251.9591 7.19182
36.8 268.84537 7.20695 257.39785 7.17991
37.0 272.73743 7.21525 253.37962 7.18904
37.2 267.7043 7.22058 245.92825 7.18487
37.4 272.16189 7.17361 259.35886 7.16459
37.6 269.24456 7.10047 247.22444 7.09028
37.8 273.79517 7.12442 249.39536 7.09383
38.0 267.38826 7.11605 254.04025 7.10378
38.2 262.72681 7.11534 250.7258 7.09349
38.4 264.25854 7.11138 246.37656 7.10028
38.6 263.38249 7.11156 260.29755 7.11157
38.8 261.71134 7.0796 259.82293 7.07233
39.0 269.90384 7.02568 253.45171 7.00083
39.2 269.49935 7.02924 260.26213 7.01174
39.4 270.25725 7.02578 251.53067 7.01462
39.6 266.41657 7.03404 257.58902 7.01305
39.8 261.8771 7.03251 261.10592 7.01749
40.0 269.22682 7.03547 262.87515 7.02165
40.2 275.24423 7.02826 259.37533 7.01444
40.4 272.93932 6.94654 260.46967 6.93191
40.6 276.59749 6.9617 261.4028 6.94472
40.8 273.1109 6.93791 259.78441 6.93184
41.0 269.72685 6.85988 262.06462 6.85227
41.2 273.45073 6.85931 263.87571 6.85171
41.4 273.88996 6.85811 258.44486 6.83805
41.6 267.51714 6.86877 265.87929 6.8569
41.8 267.20283 6.79441 264.75346 6.78673
42.0 272.05252 6.77589 255.84928 6.7593
42.2 263.95973 6.78304 268.31221 6.7786
42.4 270.73059 6.78262 264.66569 6.76747
42.6 268.52162 6.78009 262.79244 6.77857
42.8 267.64881 6.7854 272.82761 6.78273
43.0 270.46275 6.78126 266.80092 6.78136
43.2 272.73124 6.75536 274.43162 6.7568
43.4 265.90833 6.69429 267.50994 6.69554
43.6 275.74503 6.7074 271.32054 6.69468
43.8 272.46392 6.7053 274.86316 6.70684
44.0 269.85984 6.70291 273.98186 6.70742
44.2 275.06119 6.70271 278.63343 6.71233
44.4 272.41016 6.71339 280.08424 6.71298
44.6 275.04076 6.69953 279.97438 6.70736
44.8 277.55144 6.67001 299.06028 6.69645
45.0 286.28271 6.64049 313.84948 6.67684
45.2 291.3464 6.65585 345.82968 6.7254
45.4 299.6347 6.66197 388.44304 6.77069
45.6 311.76451 6.66816 436.54283 6.87208
45.8 323.48825 6.68871 505.67497 7.01458
46.0 346.32517 6.73087 584.29061 7.18295
46.2 363.48748 6.76749 662.77934 7.38806
46.4 390.64078 6.73899 759.58563 7.57451
46.6 411.94922 6.75153 853.33915 7.8129
46.8 414.45145 6.76928 927.38706 8.02025
47.0 424.20961 6.77669 960.14206 8.11786
47.2 414.36503 6.76899 932.01121 8.05411
47.4 399.80534 6.73755 861.80635 7.84795
47.6 374.24607 6.69013 765.70561 7.57001
47.8 347.4976 6.65321 655.06787 7.28533
48.0 324.48642 6.58907 534.97931 6.95837
48.2 312.08892 6.53681 444.30274 6.7413
48.4 298.40727 6.50963 376.86963 6.61499
48.6 296.25731 6.44831 330.45875 6.47592
48.8 296.4741 6.44024 312.2496 6.47225
49.0 294.16753 6.45182 308.7981 6.46599
49.2 294.62126 6.43511 301.39367 6.45493
49.4 302.55391 6.44789 301.26164 6.45069
49.6 298.11291 6.42714 306.01683 6.43181
49.8 305.73445 6.39323 301.47423 6.37989
50.0 305.01194 6.38652 303.9778 6.39374
50.2 299.04515 6.38033 300.14975 6.39782
50.4 309.53059 6.39781 296.73323 6.38408
50.6 310.53705 6.38928 306.70781 6.37944
50.8 314.61176 6.39281 307.78713 6.39193
51.0 309.25855 6.40563 299.26118 6.39337
51.2 313.70901 6.38819 305.24475 6.38678
51.4 315.20085 6.37512 303.6734 6.36512
51.6 313.38285 6.32635 301.87263 6.31518
51.8 322.61962 6.34968 305.64202 6.32367
52.0 319.32839 6.35516 312.93859 6.34932
52.2 316.52476 6.33421 311.7443 6.33412
52.4 325.1235 6.34756 310.53401 6.33897
52.6 324.52291 6.36088 316.49687 6.35224
52.8 330.14224 6.39924 319.47004 6.37981
53.0 337.1105 6.41841 321.16145 6.4
53.2 340.24479 6.42159 335.30628 6.40856
53.4 364.89909 6.44728 333.49171 6.40823
53.6 381.24031 6.49564 360.48114 6.46707
53.8 417.93781 6.5961 384.42149 6.53488
54.0 459.11377 6.69394 425.56542 6.63087
54.2 513.3472 6.83051 475.53113 6.74374
54.4 588.94032 7.03201 518.44269 6.88126
54.6 661.86792 7.23039 584.13421 7.0384
54.8 769.81848 7.54887 659.41432 7.28069
55.0 885.51002 7.88599 741.37684 7.48477
55.2 1014.05875 8.20881 833.54601 7.70989
55.4 1133.24261 8.61275 913.90415 7.96259
55.6 1216.85755 8.91715 982.12683 8.21982
55.8 1252.50698 9.03703 1001.54459 8.28306
56.0 1237.46316 9.05619 1003.38114 8.36056
56.2 1172.6004 8.88559 949.03809 8.21193
56.4 1052.37366 8.57163 884.64858 8.08082
56.6 922.89096 8.25409 780.58542 7.82897
56.8 803.3016 7.90855 701.90136 7.62413
57.0 671.29164 7.56547 613.40012 7.41431
57.2 573.99372 7.32026 565.17159 7.29224
57.4 514.26328 7.15674 544.61843 7.25483
57.6 495.8538 7.13048 543.34655 7.25784
57.8 480.55338 7.15376 569.71713 7.35472
58.0 482.70937 7.17834 605.5544 7.45963
58.2 504.66938 7.26906 638.56141 7.56992
58.4 494.30934 7.28609 644.34795 7.62955
58.6 498.60462 7.34176 653.60518 7.71602
58.8 493.6196 7.37242 633.92225 7.70894
59.0 481.83798 7.3699 608.916 7.69065
59.2 470.43238 7.33114 578.03638 7.58743
59.4 450.6203 7.31853 538.23357 7.5206
59.6 435.89774 7.31762 489.05689 7.45
59.8 412.89283 7.31881 464.36845 7.42058
60.0 396.89869 7.34605 430.05845 7.39101
60.2 396.49245 7.37648 400.49112 7.37574
60.4 382.96023 7.39358 385.62069 7.39552
60.6 386.56035 7.43808 374.7521 7.42411
60.8 377.45989 7.46574 383.53327 7.47609
61.0 377.35858 7.52437 373.71089 7.51932
61.2 380.23001 7.5617 373.31361 7.56435
61.4 385.53959 7.53439 370.65458 7.52722
61.6 378.6239 7.58266 380.39217 7.59746
61.8 383.14404 7.63112 377.58907 7.62594
62.0 390.68444 7.68461 381.40962 7.69112
62.2 387.86028 7.75819 394.52904 7.76865
62.4 386.99168 7.7872 384.24819 7.76968
62.6 393.86755 7.86604 379.88733 7.83653
62.8 391.59215 7.89718 389.36768 7.89899
63.0 402.43186 7.97639 381.6132 7.94053
63.2 395.21091 8.01718 386.2505 8.00525
63.4 398.41126 8.07941 393.7952 8.05783
63.6 409.62489 8.15492 380.41477 8.11237
63.8 401.06486 8.13827 391.59875 8.10706
64.0 411.86586 8.19161 401.04981 8.16951
64.2 410.28227 8.25721 397.34455 8.25498
64.4 409.51418 8.30227 401.30619 8.27647
64.6 415.45047 8.40698 400.19224 8.35199
64.8 409.82807 8.44349 396.11443 8.39083
65.0 419.6206 8.53747 396.75884 8.45681
65.2 417.07477 8.61426 402.41506 8.55727
65.4 415.91106 8.66007 405.02779 8.6266
65.6 426.20886 8.75379 403.90949 8.70046
65.8 438.42159 8.83649 413.00808 8.79188
66.0 454.78787 8.95738 413.36308 8.87963
66.2 471.85688 9.05599 431.21179 8.93391
66.4 509.77974 9.18997 430.13057 8.97797
66.6 554.6798 9.38233 454.97216 9.10301
66.8 611.07835 9.63832 463.52041 9.21304
67.0 688.92091 9.9895 488.44778 9.3664
67.2 758.03645 10.32137 507.25237 9.50298
67.4 844.08742 10.78899 534.74572 9.66757
67.6 942.70504 11.2729 575.08756 9.87388
67.8 1077.92141 11.92299 602.01296 10.08762
68.0 1206.17301 12.55026 621.88545 10.22624
68.2 1320.22304 13.15835 649.38058 10.46576
68.4 1391.5553 13.56505 658.17898 10.60425
68.6 1414.11996 13.85205 658.19811 10.70369
68.8 1436.40727 14.04954 653.40786 10.77908
69.0 1334.07073 13.79375 635.195 10.85145
69.2 1240.62767 13.45324 631.15891 10.88152
69.4 1090.45157 12.81852 583.65545 10.73564
69.6 960.59949 12.36227 550.55658 10.73345
69.8 787.02589 11.77595 516.81766 10.73322
70.0 677.17161 11.42447 473.07134 10.76127
70.2 571.08115 11.19141 437.07803 10.78197
70.4 481.52295 11.10088 415.41332 10.8683
70.6 445.29956 11.12018 409.45633 11.03371
70.8 425.62256 11.15876 397.6506 11.13388
71.0 406.34973 11.29589 396.57873 11.28095
71.2 423.7516 11.51155 378.80013 11.42823
71.4 396.85561 11.61435 381.81564 11.57753
71.6 395.24519 11.81993 387.31975 11.78742
71.8 378.95858 11.91763 379.92628 11.93756
72.0 407.8527 12.1975 367.78112 12.14268
72.2 385.6226 12.4122 373.07328 12.33829
72.4 373.14586 12.45403 372.10664 12.44357
72.6 383.2446 12.73262 370.71194 12.68774
72.8 375.72283 12.87555 362.02665 12.82652
73.0 364.8482 13.16508 355.22693 13.1695
73.2 370.22186 13.40546 365.93207 13.412
73.4 354.29553 13.68997 349.8233 13.70426
73.6 358.49039 14.04393 350.96997 14.03135
73.8 358.20123 14.32085 352.55538 14.30055
74.0 351.5172 14.76234 345.04288 14.70102
74.2 355.82636 15.08882 360.66342 15.13653
74.4 356.49594 15.49912 356.16841 15.53763
74.6 348.67374 15.96763 341.73755 15.92827
74.8 366.23114 16.42533 360.96143 16.4497
75.0 364.66218 17.05325 351.48435 17.04908
75.2 348.57666 17.61545 346.6563 17.52975
75.4 345.14973 18.41127 341.98364 18.33089
75.6 361.52966 19.14151 348.56413 19.15405
75.8 346.02408 20.04872 347.05343 19.91403
76.0 329.42495 21.11451 357.3283 21.1142
76.2 344.98292 22.03657 312.90539 22.07323
76.4 361.6395 23.70545 353.20949 23.64954
76.6 353.24128 25.29844 371.39035 25.44116
76.8 360.82849 27.90586 363.82064 27.89261
77.0 344.20185 31.16117 352.43144 31.15316
77.2 374.24883 35.77549 333.0619 35.36905
77.4 391.26964 43.31312 388.47101 43.29213
77.6 478.41259 59.88933 399.23685 58.26602
77.8 533.95183 130.13142 660.97173 130.69652
